#Open Capacitance 1000Hz:Not Measured
#Open Capacitance 1000000Hz:4.330640E-12
#47368_015_2-S_MAIN0_Interstrip_091923
#Date/Time: 9/19/2023 3:30:39 PM
#Sensor Name: 47368_015_2-S_MAIN0
#Station: Tesla
#Annealing Status: Not Irradiated
#Environment: 23.5C
#Tester: Yarelis Acevedo

#Notes: 

#Time Delay per Ramp Step (s): 0.000

#Time Delay per Measurement (s) :0.000

#Number of measurements per voltage: 0.000



Strip 	Time	RH	ChuckT	AirT	Global Current	Interstrip C	I_InterstripR_V-0.0	I_InterstripR_V-2.5	I_InterstripR_V-5.0
15	3777996720.221273	2.803815	23.500000	25.787052	-1.850900E-7	5.999978E-12	-8.214787E-11	-9.982648E-11	-1.135170E-10
30	3777996744.843930	2.945051	23.500000	25.839052	-1.850500E-7	5.994733E-12	-8.250178E-11	-9.947095E-11	-1.141408E-10
45	3777996769.817190	3.286853	23.500000	25.833286	-1.850000E-7	5.994638E-12	-8.463248E-11	-1.006101E-10	-1.172240E-10
60	3777996794.760352	3.206768	23.500000	25.806216	-1.850200E-7	5.995893E-12	-8.008136E-11	-9.732674E-11	-1.137778E-10
75	3777996819.732385	3.239403	23.500000	25.839429	-1.850600E-7	5.996350E-12	-7.760817E-11	-9.425681E-11	-1.112479E-10
90	3777996844.572083	3.421238	23.500000	25.832769	-1.848400E-7	5.997857E-12	-8.039027E-11	-9.841192E-11	-1.149526E-10
105	3777996869.372680	3.145604	23.500000	25.812239	-1.849800E-7	5.999560E-12	-7.970760E-11	-9.722530E-11	-1.139443E-10
120	3777996894.193571	2.948510	23.500000	25.831738	-1.848800E-7	5.999127E-12	-8.362044E-11	-1.004224E-10	-1.176435E-10
135	3777996919.023824	3.275939	23.500000	25.870143	-1.848600E-7	6.000563E-12	-7.586636E-11	-9.588254E-11	-1.123750E-10
150	3777996943.971219	3.017070	23.500000	25.876821	-1.849700E-7	6.001805E-12	-7.998095E-11	-9.781716E-11	-1.158126E-10
165	3777996968.785695	2.999273	23.500000	25.875732	-1.848600E-7	6.003200E-12	-8.042662E-11	-9.957990E-11	-1.153648E-10
180	3777996993.587238	2.864932	23.500000	25.880626	-1.847000E-7	6.003420E-12	-7.661195E-11	-9.128545E-11	-1.111475E-10
195	3777997018.548459	2.706690	23.500000	25.870501	-1.848500E-7	6.006395E-12	-7.677341E-11	-9.302521E-11	-1.127210E-10
210	3777997043.499236	2.557685	23.500000	25.874345	-1.847800E-7	6.004152E-12	-7.890884E-11	-9.923085E-11	-1.158703E-10
225	3777997068.439534	2.589414	23.500000	25.868242	-1.848300E-7	6.004342E-12	-8.115526E-11	-9.771556E-11	-1.156845E-10
240	3777997093.274633	2.657727	23.500000	25.907182	-1.846800E-7	6.004825E-12	-8.035528E-11	-9.502038E-11	-1.155853E-10
255	3777997118.111026	2.516485	23.500000	25.902008	-1.847200E-7	6.007265E-12	-7.471306E-11	-9.362219E-11	-1.107112E-10
270	3777997142.935825	2.388811	23.500000	25.912213	-1.847300E-7	6.006820E-12	-7.891844E-11	-9.702434E-11	-1.155495E-10
285	3777997167.754681	2.425048	23.500000	25.912868	-1.848200E-7	6.006065E-12	-7.465421E-11	-9.465832E-11	-1.115447E-10
300	3777997192.577003	2.363091	23.500000	25.925808	-1.849800E-7	6.003825E-12	-8.140751E-11	-9.944817E-11	-1.169941E-10
315	3777997217.437621	2.318492	23.500000	25.923114	-1.848300E-7	6.005582E-12	-8.053091E-11	-1.006469E-10	-1.195037E-10
330	3777997242.375212	2.440369	23.500000	25.950836	-1.847400E-7	6.006057E-12	-8.426222E-11	-1.015640E-10	-1.195135E-10
345	3777997267.357018	2.192215	23.500000	25.957634	-1.846600E-7	6.005865E-12	-8.275158E-11	-9.864434E-11	-1.177150E-10
360	3777997292.291833	2.209494	23.500000	25.958169	-1.846300E-7	6.007803E-12	-7.522560E-11	-9.155755E-11	-1.121169E-10
375	3777997317.088867	2.129265	23.500000	25.972158	-1.848300E-7	6.006860E-12	-7.646803E-11	-9.324010E-11	-1.131414E-10
390	3777997341.930652	2.183452	23.500000	25.986566	-1.847500E-7	6.007407E-12	-7.936617E-11	-9.988330E-11	-1.178003E-10
405	3777997366.854026	2.148413	23.500000	25.979530	-1.847000E-7	6.005822E-12	-7.531843E-11	-9.360687E-11	-1.149655E-10
420	3777997391.717554	2.178695	23.500000	25.985158	-1.848000E-7	6.004222E-12	-7.823851E-11	-9.688469E-11	-1.140489E-10
435	3777997416.579588	2.110090	23.500000	26.005551	-1.845600E-7	6.003332E-12	-7.598264E-11	-9.235099E-11	-1.140211E-10
450	3777997441.682365	2.094224	23.500000	25.992353	-1.847300E-7	6.003845E-12	-7.230454E-11	-9.313542E-11	-1.129448E-10
465	3777997466.512412	2.086739	23.500000	26.027171	-1.848500E-7	6.002178E-12	-7.160514E-11	-8.925245E-11	-1.098996E-10
480	3777997491.457009	2.056444	23.500000	26.012190	-1.847000E-7	6.003250E-12	-7.888781E-11	-9.659419E-11	-1.165402E-10
495	3777997516.284151	2.010238	23.500000	26.037535	-1.846600E-7	6.001843E-12	-8.223820E-11	-1.031429E-10	-1.201231E-10
510	3777997541.265573	1.993854	23.500000	26.065694	-1.846800E-7	6.002477E-12	-8.379810E-11	-1.007773E-10	-1.193720E-10
525	3777997566.068620	2.011389	23.500000	26.086681	-1.847100E-7	6.002753E-12	-7.843557E-11	-9.856237E-11	-1.168758E-10
540	3777997591.006777	1.995770	23.500000	26.079387	-1.846500E-7	6.001358E-12	-7.596709E-11	-9.624278E-11	-1.166118E-10
555	3777997615.939297	2.002471	23.500000	26.033036	-1.845600E-7	6.000742E-12	-8.320684E-11	-1.017261E-10	-1.222385E-10
570	3777997640.735285	2.010099	23.500000	26.042151	-1.847800E-7	5.998960E-12	-8.038105E-11	-1.007260E-10	-1.177865E-10
585	3777997665.583529	1.953038	23.500000	26.068984	-1.846800E-7	6.000157E-12	-7.449369E-11	-9.494924E-11	-1.132882E-10
600	3777997690.393214	1.979005	23.500000	26.073719	-1.847200E-7	5.998875E-12	-7.806288E-11	-9.819212E-11	-1.185620E-10
615	3777997715.212327	1.968146	23.500000	26.073164	-1.848100E-7	5.999100E-12	-7.963012E-11	-9.991784E-11	-1.182543E-10
630	3777997740.029756	1.985457	23.500000	26.068390	-1.845700E-7	5.998970E-12	-7.898981E-11	-9.988125E-11	-1.195282E-10
645	3777997764.833069	1.967754	23.500000	26.065356	-1.846300E-7	5.999430E-12	-8.420498E-11	-1.039902E-10	-1.265719E-10
660	3777997789.622219	1.926593	23.500000	26.066091	-1.846200E-7	5.998655E-12	-8.080282E-11	-1.011731E-10	-1.235895E-10
675	3777997814.610455	1.957608	23.500000	26.097361	-1.846800E-7	5.999130E-12	-7.484577E-11	-9.573756E-11	-1.154600E-10
690	3777997839.555421	1.949155	23.500000	26.100610	-1.847600E-7	6.001647E-12	-8.273622E-11	-1.037319E-10	-1.217468E-10
705	3777997864.336326	1.904262	23.500000	26.112678	-1.845200E-7	5.999518E-12	-7.931219E-11	-9.823831E-11	-1.183267E-10
720	3777997889.154959	1.892518	23.500000	26.120070	-1.846400E-7	6.000512E-12	-8.039720E-11	-1.009532E-10	-1.192777E-10
735	3777997914.102918	1.901698	23.500000	26.125678	-1.846600E-7	6.001893E-12	-8.334262E-11	-1.018073E-10	-1.223442E-10
750	3777997938.892825	1.877971	23.500000	26.119792	-1.846200E-7	5.999428E-12	-8.110927E-11	-9.888602E-11	-1.198149E-10
765	3777997963.705670	1.929862	23.500000	26.098727	-1.846900E-7	6.000685E-12	-7.710384E-11	-9.826759E-11	-1.194125E-10
780	3777997988.574545	1.879360	23.500000	26.097104	-1.845500E-7	5.999648E-12	-7.650155E-11	-9.878094E-11	-1.177553E-10
795	3777998013.359560	1.900456	23.500000	26.137270	-1.847100E-7	6.000255E-12	-7.629814E-11	-9.547544E-11	-1.164618E-10
810	3777998038.311861	1.858104	23.500000	26.153361	-1.846400E-7	5.999838E-12	-8.219260E-11	-9.807724E-11	-1.178148E-10
825	3777998063.235046	1.899640	23.500000	26.163587	-1.846300E-7	6.001247E-12	-7.672091E-11	-9.838633E-11	-1.202301E-10
840	3777998088.294959	1.888135	23.500000	26.179738	-1.846000E-7	6.001135E-12	-7.952690E-11	-9.868545E-11	-1.174302E-10
855	3777998113.107981	1.924590	23.500000	26.181205	-1.848600E-7	6.002910E-12	-7.655715E-11	-9.784008E-11	-1.156775E-10
870	3777998137.868145	1.897009	23.500000	26.175616	-1.845400E-7	6.002997E-12	-8.395799E-11	-1.054867E-10	-1.261882E-10
885	3777998162.826017	1.890199	23.500000	26.182512	-1.845700E-7	6.004005E-12	-8.131374E-11	-9.897621E-11	-1.194810E-10
900	3777998187.646342	1.899665	23.500000	26.205758	-1.846300E-7	6.003693E-12	-7.695113E-11	-9.786339E-11	-1.170373E-10
915	3777998212.438389	1.841773	23.500000	26.215922	-1.844800E-7	6.004330E-12	-7.736674E-11	-9.949115E-11	-1.180829E-10
930	3777998237.241104	1.815818	23.500000	26.207997	-1.847000E-7	6.005452E-12	-8.218954E-11	-1.011494E-10	-1.206660E-10
945	3777998262.153670	1.829848	23.500000	26.214535	-1.846400E-7	6.004920E-12	-7.848137E-11	-9.973775E-11	-1.179910E-10
960	3777998287.248725	1.869742	23.500000	26.218242	-1.846400E-7	6.005092E-12	-8.092078E-11	-1.021160E-10	-1.215061E-10
975	3777998312.215775	1.839024	23.500000	26.216657	-1.844500E-7	6.005370E-12	-8.042053E-11	-1.021923E-10	-1.201588E-10
990	3777998337.028065	1.819971	23.500000	26.248304	-1.845000E-7	6.004320E-12	-8.220186E-11	-1.006005E-10	-1.193741E-10
1005	3777998361.986530	1.841273	23.500000	26.245984	-1.845500E-7	6.003837E-12	-8.340235E-11	-1.049269E-10	-1.217593E-10
1020	3777998388.227654	1.816670	23.500000	26.238732	-1.845100E-7	5.982900E-12	-7.847704E-11	-9.529393E-11	-1.077542E-10
1035	3777998413.181083	1.758496	23.500000	26.319545	-1.844400E-7	5.995112E-12	-7.706417E-11	-9.247122E-11	-1.052618E-10
1050	3777998438.115350	1.740414	23.500000	26.367836	-1.847600E-7	5.995780E-12	-7.707276E-11	-9.313726E-11	-1.077458E-10
1065	3777998462.907094	1.773861	23.500000	26.331652	-1.846100E-7	5.998818E-12	-7.409770E-11	-8.820488E-11	-1.046801E-10
1080	3777998487.851246	1.769096	23.500000	26.325826	-1.846000E-7	5.995967E-12	-7.012352E-11	-8.810588E-11	-1.013828E-10
1095	3777998512.662518	1.732167	23.500000	26.399543	-1.847500E-7	5.996563E-12	-7.546640E-11	-9.100615E-11	-1.058100E-10
1110	3777998537.499307	1.819778	23.500000	26.340966	-1.845700E-7	5.995887E-12	-7.919116E-11	-9.458326E-11	-1.075077E-10
1125	3777998562.344382	1.772762	23.500000	26.384384	-1.845200E-7	5.995230E-12	-7.999687E-11	-9.286450E-11	-1.093437E-10
1140	3777998587.173146	1.845135	23.500000	26.324953	-1.846600E-7	5.995212E-12	-7.331589E-11	-8.617287E-11	-1.000537E-10
1155	3777998611.986882	1.829477	23.500000	26.310943	-1.846900E-7	5.994905E-12	-7.586242E-11	-9.041363E-11	-1.048946E-10
1170	3777998636.949951	1.752096	23.500000	26.324439	-1.846400E-7	5.994485E-12	-7.838687E-11	-9.174031E-11	-1.073231E-10
1185	3777998661.890111	1.823493	23.500000	26.318395	-1.847600E-7	5.993785E-12	-7.825910E-11	-9.119256E-11	-1.066021E-10
1200	3777998686.683522	1.818881	23.500000	26.311023	-1.845600E-7	5.993810E-12	-8.024934E-11	-9.654242E-11	-1.101792E-10
1215	3777998711.508605	1.819138	23.500000	26.340294	-1.846100E-7	5.994530E-12	-8.487713E-11	-9.945656E-11	-1.132407E-10
1230	3777998736.296543	1.796350	23.500000	26.322299	-1.846500E-7	5.992530E-12	-8.109289E-11	-9.589170E-11	-1.102446E-10
1245	3777998761.133841	1.783526	23.500000	26.310073	-1.846400E-7	5.992005E-12	-8.477859E-11	-9.709483E-11	-1.110491E-10
1260	3777998785.961185	1.785910	23.500000	26.336429	-1.847200E-7	5.989853E-12	-8.102013E-11	-9.426109E-11	-1.093093E-10
1275	3777998810.890296	1.797874	23.500000	26.329948	-1.848800E-7	5.987093E-12	-7.836605E-11	-9.080846E-11	-1.032322E-10
1290	3777998835.856172	1.847228	23.500000	26.313857	-1.847700E-7	5.987002E-12	-8.469089E-11	-9.871218E-11	-1.116812E-10
1305	3777998860.838592	1.808449	23.500000	26.312945	-1.848200E-7	5.986027E-12	-8.991562E-11	-1.037864E-10	-1.185811E-10
1320	3777998885.949866	1.820725	23.500000	26.343740	-1.844900E-7	5.985590E-12	-8.788202E-11	-9.836239E-11	-1.131861E-10
1335	3777998910.880102	1.773896	23.500000	26.357514	-1.848500E-7	5.985620E-12	-8.232712E-11	-9.560324E-11	-1.077110E-10
1350	3777998935.717629	1.819392	23.500000	26.419460	-1.846300E-7	5.985930E-12	-8.389438E-11	-9.857416E-11	-1.102837E-10
1365	3777998960.533226	1.868835	23.500000	26.364073	-1.847600E-7	5.985007E-12	-7.591824E-11	-8.714299E-11	-1.000231E-10
1380	3777998985.374107	1.829194	23.500000	26.359912	-1.845500E-7	5.984633E-12	-8.365474E-11	-9.585206E-11	-1.095319E-10
1395	3777999010.215761	1.832097	23.500000	26.440447	-1.845400E-7	5.984913E-12	-8.214680E-11	-9.233991E-11	-1.072551E-10
1410	3777999035.024269	1.817320	23.500000	26.346257	-1.845000E-7	5.984392E-12	-8.045341E-11	-9.117766E-11	-1.060945E-10
1425	3777999059.950384	1.833596	23.500000	26.338410	-1.845900E-7	5.985915E-12	-7.705087E-11	-8.797669E-11	-9.969371E-11
1440	3777999084.916462	1.825779	23.500000	26.367086	-1.847400E-7	5.984217E-12	-8.827006E-11	-9.919446E-11	-1.102006E-10
1455	3777999110.010264	1.901494	23.500000	26.392569	-1.846300E-7	5.985180E-12	-8.525124E-11	-9.639029E-11	-1.064515E-10
1470	3777999134.961041	1.878675	23.500000	26.408621	-1.846300E-7	5.983953E-12	-7.714934E-11	-8.866176E-11	-1.016089E-10
1485	3777999159.736620	1.822068	23.500000	26.363397	-1.847500E-7	5.984433E-12	-8.836634E-11	-9.913168E-11	-1.097642E-10
1500	3777999184.567315	1.830999	23.500000	26.448273	-1.846800E-7	5.984220E-12	-7.908767E-11	-8.847489E-11	-1.016367E-10
1515	3777999209.552022	1.871208	23.500000	26.410878	-1.846600E-7	5.983242E-12	-7.775881E-11	-8.785399E-11	-9.810396E-11
1530	3777999234.377039	1.890578	23.500000	26.391460	-1.844400E-7	5.983390E-12	-8.442920E-11	-9.480856E-11	-1.044718E-10
1545	3777999259.202391	1.834309	23.500000	26.452018	-1.845700E-7	5.982677E-12	-1.586177E-10	-1.719234E-10	-1.882008E-10
1560	3777999284.017022	1.887348	23.500000	26.469119	-1.846000E-7	5.982553E-12	-7.356532E-11	-8.513491E-11	-9.340257E-11
1575	3777999308.823682	1.844996	23.500000	26.515491	-1.846200E-7	5.982695E-12	-7.595587E-11	-8.426257E-11	-9.518741E-11
1590	3777999333.643913	1.862923	23.500000	26.449164	-1.845600E-7	5.982403E-12	-7.706496E-11	-8.748704E-11	-9.646661E-11
1605	3777999358.591761	1.812870	23.500000	26.446808	-1.847400E-7	5.982522E-12	-7.844864E-11	-8.962511E-11	-1.003543E-10
1620	3777999383.546769	1.844898	23.500000	26.481883	-1.847700E-7	5.983300E-12	-7.231842E-11	-8.027370E-11	-8.943230E-11
1635	3777999408.695013	1.836022	23.500000	26.494764	-1.845700E-7	5.983533E-12	-7.615907E-11	-8.446499E-11	-9.223238E-11
1650	3777999433.528729	1.878687	23.500000	26.508457	-1.845900E-7	5.983170E-12	-7.984296E-11	-8.899503E-11	-9.602746E-11
1665	3777999458.511941	1.845604	23.500000	26.468961	-1.845200E-7	5.982650E-12	-8.206789E-11	-8.879245E-11	-9.619759E-11
1680	3777999483.491157	1.794490	23.500000	26.432558	-1.845600E-7	5.983080E-12	-7.974072E-11	-8.685166E-11	-9.894221E-11
1695	3777999508.340382	1.832884	23.500000	26.482021	-1.846400E-7	5.982740E-12	-7.401999E-11	-8.135195E-11	-8.755228E-11
1710	3777999533.320248	1.831418	23.500000	26.460340	-1.845900E-7	5.982170E-12	-7.572955E-11	-8.208363E-11	-8.945012E-11
1725	3777999558.321819	1.801425	23.500000	26.481247	-1.846900E-7	5.982758E-12	-8.137686E-11	-8.861294E-11	-9.465977E-11
1740	3777999583.156658	1.826400	23.500000	26.482000	-1.847400E-7	5.984063E-12	-7.080616E-11	-7.740866E-11	-8.378911E-11
1755	3777999607.983151	1.922823	23.500000	26.518940	-1.845100E-7	5.983195E-12	-7.412527E-11	-8.337736E-11	-8.992936E-11
1770	3777999632.965015	1.943366	23.500000	26.474727	-1.846500E-7	5.983680E-12	-7.669104E-11	-8.311752E-11	-9.147615E-11
1785	3777999657.735083	1.948844	23.500000	26.476551	-1.845300E-7	5.983740E-12	-7.896876E-11	-8.465634E-11	-9.185050E-11
1800	3777999682.546806	1.983052	23.500000	26.534317	-1.845700E-7	5.983620E-12	-7.800419E-11	-8.544019E-11	-8.945995E-11
1815	3777999707.341815	1.900254	23.500000	26.527818	-1.846200E-7	5.982792E-12	-7.598287E-11	-8.038778E-11	-8.788820E-11
1830	3777999732.327294	1.908311	23.500000	26.501501	-1.844000E-7	5.982405E-12	-8.197878E-11	-9.012542E-11	-9.514181E-11
1845	3777999757.140762	1.854499	23.500000	26.532951	-1.845200E-7	5.983333E-12	-7.450393E-11	-8.126363E-11	-8.771426E-11
1860	3777999782.121716	1.813769	23.500000	26.515670	-1.844400E-7	5.983505E-12	-7.977650E-11	-8.538357E-11	-8.957995E-11
1875	3777999807.090601	1.811421	23.500000	26.569847	-1.846100E-7	5.983673E-12	-7.568232E-11	-8.027677E-11	-8.449424E-11
1890	3777999832.070390	1.822718	23.500000	26.552132	-1.845000E-7	5.983505E-12	-7.157423E-11	-7.724037E-11	-8.170885E-11
1905	3777999857.028601	1.845371	23.500000	26.568301	-1.845600E-7	5.983765E-12	-8.159157E-11	-8.372919E-11	-8.942971E-11
1920	3777999882.000635	1.791429	23.500000	26.571512	-1.846500E-7	5.983228E-12	-7.754030E-11	-8.069751E-11	-8.491251E-11
1935	3777999906.839277	1.813401	23.500000	26.595135	-1.846800E-7	5.983493E-12	-7.959804E-11	-8.388067E-11	-8.807320E-11
1950	3777999931.627488	1.813514	23.500000	26.595470	-1.847700E-7	5.983755E-12	-8.048736E-11	-8.318638E-11	-8.801128E-11
1965	3777999956.698793	1.829201	23.500000	26.614475	-1.844900E-7	5.982755E-12	-8.384123E-11	-8.741268E-11	-8.915001E-11
1980	3777999981.517919	1.863174	23.500000	26.647252	-1.846600E-7	5.983315E-12	-7.859054E-11	-8.225520E-11	-8.593597E-11
1995	3778000006.483863	1.830388	23.500000	26.641961	-1.847200E-7	5.983220E-12	-8.221796E-11	-8.529521E-11	-8.811819E-11
2010	3778000031.303415	1.847554	23.500000	26.634231	-1.846300E-7	5.982363E-12	-9.028055E-11	-9.187340E-11	-9.547098E-11
2025	3778000056.129699	1.851372	23.500000	26.655774	-1.846700E-7	5.982388E-12	-8.489901E-11	-8.679892E-11	-8.809404E-11
