#Open Capacitance 1000Hz:Not Measured
#Open Capacitance 1000000Hz:4.331093E-12
#47368_021_2-S_MAIN0_Interstrip_092023
#Date/Time: 9/20/2023 10:22:48 AM
#Sensor Name: 47368_021_2-S_MAIN0
#Station: Tesla
#Annealing Status: Not Irradiated
#Environment: 23.5C
#Tester: Yarelis Acevedo

#Notes: 

#Time Delay per Ramp Step (s): 0.000

#Time Delay per Measurement (s) :0.000

#Number of measurements per voltage: 0.000



Strip 	Time	RH	ChuckT	AirT	Global Current	Interstrip C	I_InterstripR_V-0.0	I_InterstripR_V-2.5	I_InterstripR_V-5.0
15	3778064648.129311	3.359318	23.500000	26.151122	-1.961800E-7	5.996925E-12	-8.855559E-11	-1.032700E-10	-1.197318E-10
30	3778064673.036635	3.501675	23.500000	26.169374	-1.961300E-7	5.990477E-12	-8.537220E-11	-1.005822E-10	-1.189745E-10
45	3778064697.866945	3.520917	23.500000	26.204112	-1.961500E-7	5.988870E-12	-9.049187E-11	-1.066887E-10	-1.238480E-10
60	3778064722.833512	3.423697	23.500000	26.236156	-1.960000E-7	5.989968E-12	-8.584554E-11	-1.019364E-10	-1.173061E-10
75	3778064747.811814	3.292359	23.500000	26.227060	-1.961400E-7	5.990705E-12	-8.228741E-11	-1.002819E-10	-1.128723E-10
90	3778064772.791805	3.318858	23.500000	26.232649	-1.961300E-7	5.991455E-12	-8.661713E-11	-1.003328E-10	-1.188570E-10
105	3778064797.775336	3.387669	23.500000	26.251891	-1.961100E-7	5.991523E-12	-8.271595E-11	-9.973789E-11	-1.182044E-10
120	3778064822.610125	3.475930	23.500000	26.257400	-1.959100E-7	5.993017E-12	-8.068848E-11	-9.700082E-11	-1.137930E-10
135	3778064847.436483	3.384098	23.500000	26.273114	-1.960600E-7	5.993212E-12	-8.168310E-11	-9.678802E-11	-1.158614E-10
150	3778064872.193647	3.258788	23.500000	26.290413	-1.960800E-7	5.994757E-12	-8.228746E-11	-9.960278E-11	-1.164334E-10
165	3778064897.017910	3.044368	23.500000	26.263205	-1.960000E-7	5.996425E-12	-8.045484E-11	-9.744877E-11	-1.148504E-10
180	3778064921.836287	2.890537	23.500000	26.278483	-1.960000E-7	5.995777E-12	-8.225599E-11	-9.995137E-11	-1.166990E-10
195	3778064946.647266	2.900413	23.500000	26.307436	-1.960100E-7	5.996887E-12	-8.746807E-11	-1.053154E-10	-1.206540E-10
210	3778064971.587871	2.687187	23.500000	26.282369	-1.960200E-7	5.995573E-12	-7.975830E-11	-9.622010E-11	-1.140233E-10
225	3778064996.563744	2.637250	23.500000	26.305356	-1.958700E-7	5.997490E-12	-8.021563E-11	-9.769474E-11	-1.167725E-10
240	3778065021.369637	2.555245	23.500000	26.315047	-1.958900E-7	5.996542E-12	-8.712726E-11	-1.046080E-10	-1.222174E-10
255	3778065046.180147	2.455307	23.500000	26.293704	-1.958400E-7	5.996115E-12	-8.133764E-11	-9.964087E-11	-1.179042E-10
270	3778065070.974978	2.289992	23.500000	26.294873	-1.960300E-7	5.996145E-12	-8.141453E-11	-1.007615E-10	-1.162716E-10
285	3778065095.782184	2.292581	23.500000	26.303631	-1.956600E-7	5.995483E-12	-8.333383E-11	-9.861683E-11	-1.172369E-10
300	3778065120.604348	2.316440	23.500000	26.309457	-1.959700E-7	5.996270E-12	-8.534536E-11	-1.040471E-10	-1.218655E-10
315	3778065145.410605	2.256086	23.500000	26.316751	-1.958700E-7	5.995540E-12	-8.108150E-11	-1.004486E-10	-1.167684E-10
330	3778065170.205859	2.193512	23.500000	26.300301	-1.958700E-7	5.995027E-12	-8.428369E-11	-1.038841E-10	-1.212966E-10
345	3778065195.157994	2.127525	23.500000	26.313382	-1.959700E-7	5.995875E-12	-8.801562E-11	-1.058345E-10	-1.253088E-10
360	3778065219.962688	2.109303	23.500000	26.304247	-1.958500E-7	5.993690E-12	-8.764781E-11	-1.054661E-10	-1.226319E-10
375	3778065244.919119	2.128262	23.500000	26.322813	-1.959300E-7	5.994802E-12	-8.505117E-11	-1.002861E-10	-1.224379E-10
390	3778065269.730550	2.052177	23.500000	26.336390	-1.957400E-7	5.993810E-12	-8.602923E-11	-1.068927E-10	-1.249686E-10
405	3778065294.658893	2.022153	23.500000	26.352322	-1.956900E-7	5.993582E-12	-8.362433E-11	-1.044898E-10	-1.228072E-10
420	3778065319.473496	2.066629	23.500000	26.324953	-1.958300E-7	5.993208E-12	-8.630176E-11	-1.059380E-10	-1.264485E-10
435	3778065344.280285	1.984537	23.500000	26.304405	-1.958100E-7	5.992058E-12	-8.773141E-11	-1.054492E-10	-1.237558E-10
450	3778065369.226263	2.008139	23.500000	26.325826	-1.959400E-7	5.992537E-12	-8.787677E-11	-1.066553E-10	-1.254589E-10
465	3778065394.297699	2.009817	23.500000	26.314709	-1.959000E-7	5.990750E-12	-8.700297E-11	-1.075023E-10	-1.256611E-10
480	3778065419.111182	2.072931	23.500000	26.344673	-1.957900E-7	5.989992E-12	-8.434565E-11	-1.018025E-10	-1.203456E-10
495	3778065443.924942	1.992506	23.500000	26.352122	-1.957300E-7	5.989813E-12	-8.582885E-11	-1.049119E-10	-1.230971E-10
510	3778065468.699741	1.990783	23.500000	26.365816	-1.957700E-7	5.990800E-12	-7.930040E-11	-9.792257E-11	-1.197058E-10
525	3778065493.501851	1.958786	23.500000	26.366153	-1.958000E-7	5.991607E-12	-7.682927E-11	-9.568673E-11	-1.143260E-10
540	3778065518.580715	1.932783	23.500000	26.380283	-1.957800E-7	5.991432E-12	-8.603045E-11	-1.050658E-10	-1.258040E-10
555	3778065543.522023	1.992031	23.500000	26.376319	-1.958000E-7	5.991415E-12	-7.953593E-11	-1.010111E-10	-1.180024E-10
570	3778065568.456882	1.912420	23.500000	26.364904	-1.956400E-7	5.993325E-12	-8.297829E-11	-1.047884E-10	-1.227933E-10
585	3778065593.296244	1.869634	23.500000	26.371205	-1.956200E-7	5.992770E-12	-8.381389E-11	-1.059427E-10	-1.248539E-10
600	3778065618.101663	1.865510	23.500000	26.364309	-1.957500E-7	5.992343E-12	-8.201131E-11	-1.017178E-10	-1.240214E-10
615	3778065642.903254	1.929259	23.500000	26.381888	-1.959300E-7	5.991082E-12	-8.040456E-11	-9.901444E-11	-1.189410E-10
630	3778065667.715725	1.883409	23.500000	26.391143	-1.957100E-7	5.993767E-12	-8.089094E-11	-1.005989E-10	-1.230323E-10
645	3778065692.535192	1.874742	23.500000	26.400197	-1.955600E-7	5.993120E-12	-8.459462E-11	-1.038154E-10	-1.255079E-10
660	3778065717.476591	1.896540	23.500000	26.401130	-1.958100E-7	5.994545E-12	-8.507938E-11	-1.053369E-10	-1.266442E-10
675	3778065742.444817	1.879989	23.500000	26.428894	-1.956600E-7	5.994702E-12	-8.624917E-11	-1.075544E-10	-1.269412E-10
690	3778065767.288041	1.864163	23.500000	26.437494	-1.957700E-7	5.967980E-12	-8.598811E-11	-1.061452E-10	-1.246009E-10
705	3778065792.105212	1.845376	23.500000	26.437571	-1.958800E-7	5.995660E-12	-8.681671E-11	-1.056930E-10	-1.266636E-10
720	3778065816.942707	1.840531	23.500000	26.390964	-1.958600E-7	5.995633E-12	-9.278545E-11	-1.109292E-10	-1.301465E-10
735	3778065841.764815	1.851513	23.500000	26.427940	-1.958400E-7	5.995965E-12	-8.839480E-11	-1.083865E-10	-1.282290E-10
750	3778065866.574081	1.837703	23.500000	26.427029	-1.956800E-7	5.994860E-12	-8.838912E-11	-1.084162E-10	-1.271471E-10
765	3778065891.380292	1.827672	23.500000	26.442268	-1.958800E-7	5.995878E-12	-8.489637E-11	-1.052788E-10	-1.240234E-10
780	3778065916.318464	1.889461	23.500000	26.452990	-1.957100E-7	5.997302E-12	-8.754352E-11	-1.080639E-10	-1.266515E-10
795	3778065941.097442	1.902584	23.500000	26.451483	-1.957600E-7	5.996443E-12	-8.578588E-11	-1.061426E-10	-1.227507E-10
810	3778065965.931621	1.800264	23.500000	26.458260	-1.958000E-7	5.997360E-12	-8.834514E-11	-1.088649E-10	-1.277457E-10
825	3778065990.739621	1.802772	23.500000	26.467613	-1.958800E-7	5.997165E-12	-8.463814E-11	-1.050204E-10	-1.255884E-10
840	3778066015.686549	1.767100	23.500000	26.475005	-1.957100E-7	5.997595E-12	-8.375683E-11	-1.022064E-10	-1.228203E-10
855	3778066040.469915	1.763842	23.500000	26.478156	-1.958200E-7	5.997705E-12	-8.436917E-11	-1.030097E-10	-1.240404E-10
870	3778066065.291409	1.716397	23.500000	26.485745	-1.957200E-7	5.998388E-12	-8.343690E-11	-1.021918E-10	-1.220980E-10
885	3778066090.114486	1.727034	23.500000	26.507782	-1.959600E-7	5.999472E-12	-9.056522E-11	-1.103611E-10	-1.288632E-10
900	3778066114.949113	1.710321	23.500000	26.475660	-1.958200E-7	5.999413E-12	-8.671552E-11	-1.050394E-10	-1.253304E-10
915	3778066139.775500	1.730722	23.500000	26.505543	-1.959200E-7	6.000535E-12	-8.516056E-11	-1.049386E-10	-1.242565E-10
930	3778066164.983922	1.712188	23.500000	26.528966	-1.957900E-7	6.002883E-12	-8.275605E-11	-1.040632E-10	-1.228440E-10
945	3778066189.807770	1.689676	23.500000	26.508496	-1.957200E-7	6.001460E-12	-9.021089E-11	-1.089451E-10	-1.300001E-10
960	3778066214.670661	1.701432	23.500000	26.526766	-1.955800E-7	6.002915E-12	-8.543161E-11	-1.056949E-10	-1.247181E-10
975	3778066239.605360	1.729557	23.500000	26.522327	-1.957800E-7	6.002512E-12	-9.086865E-11	-1.103793E-10	-1.288956E-10
990	3778066264.419455	1.696806	23.500000	26.525836	-1.958500E-7	6.000810E-12	-8.829754E-11	-1.091428E-10	-1.285920E-10
1005	3778066289.212776	1.706297	23.500000	26.553379	-1.959600E-7	6.000742E-12	-8.828056E-11	-1.058141E-10	-1.276618E-10
1020	3778066315.875554	1.672288	23.500000	26.537605	-1.958200E-7	5.981900E-12	-8.313208E-11	-9.790988E-11	-1.125525E-10
1035	3778066340.826064	1.605962	23.500000	26.668338	-1.957600E-7	5.997270E-12	-8.057244E-11	-9.685392E-11	-1.111539E-10
1050	3778066365.762845	1.607680	23.500000	26.586374	-1.958400E-7	5.996138E-12	-8.619425E-11	-9.980018E-11	-1.148546E-10
1065	3778066390.589543	1.621058	23.500000	26.569610	-1.959500E-7	5.997197E-12	-8.175493E-11	-9.714404E-11	-1.090085E-10
1080	3778066415.396836	1.625140	23.500000	26.604706	-1.958500E-7	5.997498E-12	-7.926482E-11	-9.285422E-11	-1.092488E-10
1095	3778066440.208511	1.628570	23.500000	26.607301	-1.958500E-7	5.997500E-12	-7.736000E-11	-9.156845E-11	-1.065014E-10
1110	3778066465.011553	1.651880	23.500000	26.536418	-1.957000E-7	5.996918E-12	-8.103800E-11	-9.696516E-11	-1.110054E-10
1125	3778066489.803392	1.650254	23.500000	26.525995	-1.957500E-7	5.996630E-12	-8.704188E-11	-1.006300E-10	-1.166711E-10
1140	3778066514.577168	1.647413	23.500000	26.579914	-1.957100E-7	5.996987E-12	-7.853844E-11	-9.191010E-11	-1.078015E-10
1155	3778066539.369384	1.630491	23.500000	26.562517	-1.957400E-7	5.996935E-12	-8.264489E-11	-9.511165E-11	-1.103578E-10
1170	3778066564.277401	1.638863	23.500000	26.548288	-1.958900E-7	5.996082E-12	-8.089484E-11	-9.345568E-11	-1.089278E-10
1185	3778066589.109714	1.634369	23.500000	26.611068	-1.960600E-7	5.994795E-12	-8.413631E-11	-9.727346E-11	-1.121696E-10
1200	3778066613.948411	1.616176	23.500000	26.559525	-1.957700E-7	5.994920E-12	-8.378791E-11	-9.719289E-11	-1.117984E-10
1215	3778066638.764490	1.646936	23.500000	26.568460	-1.960200E-7	5.995287E-12	-8.479831E-11	-9.991016E-11	-1.134339E-10
1230	3778066663.578961	1.617750	23.500000	26.526470	-1.958500E-7	5.991923E-12	-8.278473E-11	-9.495263E-11	-1.109687E-10
1245	3778066688.384434	1.627239	23.500000	26.549894	-1.958000E-7	5.991645E-12	-8.154070E-11	-9.485469E-11	-1.095423E-10
1260	3778066713.176339	1.626556	23.500000	26.536436	-1.956400E-7	5.989910E-12	-8.149675E-11	-9.901410E-11	-1.089576E-10
1275	3778066738.020672	1.630294	23.500000	26.545990	-1.958200E-7	5.988370E-12	-8.187596E-11	-9.497327E-11	-1.068336E-10
1290	3778066762.982606	1.669651	23.500000	26.528192	-1.957600E-7	5.986720E-12	-8.293112E-11	-9.692631E-11	-1.092553E-10
1305	3778066787.953778	1.670750	23.500000	26.538418	-1.958300E-7	5.987015E-12	-8.517367E-11	-9.848747E-11	-1.111683E-10
1320	3778066812.784650	1.687350	23.500000	26.540361	-1.959200E-7	5.986377E-12	-8.952483E-11	-1.036133E-10	-1.168570E-10
1335	3778066837.599574	1.654581	23.500000	26.535644	-1.958200E-7	5.984493E-12	-8.722612E-11	-9.950785E-11	-1.124587E-10
1350	3778066862.430804	1.685625	23.500000	26.549496	-1.956400E-7	5.982567E-12	-8.437268E-11	-9.831307E-11	-1.086191E-10
1365	3778066887.239365	1.680407	23.500000	26.566717	-1.957000E-7	5.981285E-12	-8.965917E-11	-1.024510E-10	-1.127157E-10
1380	3778066912.068079	1.707170	23.500000	26.582234	-1.959100E-7	5.981720E-12	-8.688751E-11	-9.876794E-11	-1.097353E-10
1395	3778066936.918256	1.733172	23.500000	26.622719	-1.957000E-7	5.981803E-12	-8.690407E-11	-9.902700E-11	-1.091567E-10
1410	3778066961.741683	1.722556	23.500000	26.593013	-1.956600E-7	5.979795E-12	-9.014594E-11	-1.004023E-10	-1.121365E-10
1425	3778066986.703805	1.786369	23.500000	26.619351	-1.958700E-7	5.979347E-12	-9.004043E-11	-9.983125E-11	-1.127783E-10
1440	3778067011.553696	1.778082	23.500000	26.596956	-1.957000E-7	5.979608E-12	-8.536075E-11	-9.708816E-11	-1.073370E-10
1455	3778067036.518677	1.770981	23.500000	26.586296	-1.957300E-7	5.978750E-12	-8.515323E-11	-9.706738E-11	-1.078767E-10
1470	3778067061.358894	1.792328	23.500000	26.610294	-1.956800E-7	5.980343E-12	-8.364850E-11	-9.301163E-11	-1.039917E-10
1485	3778067086.181023	1.821283	23.500000	26.609719	-1.956200E-7	5.979283E-12	-8.418661E-11	-9.527727E-11	-1.055301E-10
1500	3778067110.999205	1.837147	23.500000	26.654327	-1.959500E-7	5.979308E-12	-8.607728E-11	-9.601162E-11	-1.053502E-10
1515	3778067135.947181	1.805351	23.500000	26.628447	-1.955900E-7	5.980138E-12	-7.872036E-11	-8.963787E-11	-1.002358E-10
1530	3778067160.744412	1.828405	23.500000	26.612870	-1.958500E-7	5.978207E-12	-9.312550E-11	-1.019354E-10	-1.128870E-10
1545	3778067185.552776	1.807959	23.500000	26.657595	-1.958500E-7	5.978247E-12	-7.957619E-11	-9.114647E-11	-1.006750E-10
1560	3778067210.331126	1.785343	23.500000	26.670179	-1.957000E-7	5.977645E-12	-8.468338E-11	-9.187879E-11	-1.030822E-10
1575	3778067235.293521	1.757524	23.500000	26.615366	-1.956900E-7	5.978542E-12	-8.464680E-11	-9.586340E-11	-1.021574E-10
1590	3778067260.120374	1.774642	23.500000	26.636055	-1.956500E-7	5.979433E-12	-8.055201E-11	-9.116096E-11	-1.008136E-10
1605	3778067285.240498	1.757547	23.500000	26.664255	-1.957500E-7	5.977640E-12	-8.410705E-11	-9.331889E-11	-1.016142E-10
1620	3778067310.333794	1.742275	23.500000	26.636868	-1.956100E-7	5.978770E-12	-7.960174E-11	-9.153533E-11	-9.966379E-11
1635	3778067335.169117	1.730033	23.500000	26.659478	-1.957800E-7	5.979977E-12	-8.219738E-11	-9.207218E-11	-9.857962E-11
1650	3778067359.952498	1.722227	23.500000	26.699151	-1.957400E-7	5.978727E-12	-7.540001E-11	-8.489356E-11	-9.223697E-11
1665	3778067384.991405	1.706434	23.500000	26.701312	-1.957400E-7	5.979203E-12	-8.454987E-11	-9.375680E-11	-1.008401E-10
1680	3778067409.790730	1.742993	23.500000	26.692592	-1.957800E-7	5.979588E-12	-7.902845E-11	-8.734442E-11	-9.602020E-11
1695	3778067434.616199	1.714705	23.500000	26.681771	-1.959000E-7	5.979322E-12	-8.440618E-11	-9.158991E-11	-9.774857E-11
1710	3778067459.438597	1.732944	23.500000	26.694395	-1.957100E-7	5.979917E-12	-7.763683E-11	-8.729539E-11	-9.603020E-11
1725	3778067484.427666	1.758554	23.500000	26.709673	-1.957700E-7	5.981070E-12	-7.784660E-11	-8.570644E-11	-9.382079E-11
1740	3778067509.391394	1.751870	23.500000	26.666335	-1.958600E-7	5.979227E-12	-8.711872E-11	-9.425975E-11	-1.018354E-10
1755	3778067534.308056	1.759687	23.500000	26.718670	-1.957300E-7	5.978160E-12	-8.164742E-11	-9.008318E-11	-9.702254E-11
1770	3778067559.131215	1.794982	23.500000	26.739914	-1.956600E-7	5.978858E-12	-7.773435E-11	-8.398298E-11	-9.008152E-11
1785	3778067583.946797	1.824257	23.500000	26.730719	-1.957400E-7	5.981895E-12	-8.192075E-11	-8.767297E-11	-9.382610E-11
1800	3778067609.066820	1.854584	23.500000	26.743956	-1.955600E-7	5.979712E-12	-8.390200E-11	-8.827854E-11	-9.433723E-11
1815	3778067633.988017	1.891853	23.500000	26.761000	-1.956600E-7	5.980440E-12	-8.698029E-11	-9.400252E-11	-1.001820E-10
1830	3778067658.949205	1.877719	23.500000	26.743026	-1.957300E-7	5.980192E-12	-8.260300E-11	-8.808741E-11	-9.448952E-11
1845	3778067683.784053	1.830594	23.500000	26.770610	-1.958900E-7	5.980128E-12	-8.504074E-11	-9.145642E-11	-9.732291E-11
1860	3778067708.731589	1.815092	23.500000	26.772177	-1.958500E-7	5.978688E-12	-7.642998E-11	-8.206879E-11	-8.459344E-11
1875	3778067733.528743	1.789448	23.500000	26.748613	-1.956900E-7	5.979970E-12	-7.864760E-11	-8.463636E-11	-8.727533E-11
1890	3778067758.483841	1.800409	23.500000	26.789535	-1.956800E-7	5.979882E-12	-8.562367E-11	-9.102220E-11	-9.257861E-11
1905	3778067783.436859	1.804861	23.500000	26.769660	-1.955800E-7	5.981345E-12	-7.867972E-11	-8.422977E-11	-8.721935E-11
1920	3778067808.249800	1.741669	23.500000	26.771205	-1.957100E-7	5.979798E-12	-8.107007E-11	-8.249691E-11	-8.825524E-11
1935	3778067833.069482	1.737684	23.500000	26.791595	-1.956100E-7	5.980415E-12	-8.669208E-11	-9.059592E-11	-9.200190E-11
1950	3778067858.279855	1.724663	23.500000	26.816070	-1.957400E-7	5.980577E-12	-8.463474E-11	-8.793544E-11	-8.945757E-11
1965	3778067883.066771	1.765281	23.500000	26.825265	-1.957600E-7	5.980797E-12	-8.449098E-11	-8.855966E-11	-9.025760E-11
1980	3778067907.892921	1.695089	23.500000	26.825008	-1.957600E-7	5.980210E-12	-8.101778E-11	-8.452519E-11	-8.773330E-11
1995	3778067932.710801	1.725438	23.500000	26.850452	-1.957600E-7	5.980902E-12	-8.573629E-11	-8.709833E-11	-8.886676E-11
2010	3778067957.516895	1.824246	23.500000	26.862281	-1.959000E-7	5.982260E-12	-9.127513E-11	-9.275834E-11	-9.616870E-11
2025	3778067982.471612	1.788292	23.500000	26.851522	-1.959900E-7	5.979990E-12	-8.667980E-11	-8.614456E-11	-8.858951E-11
